File: examples/disc_example.mpt
EC-Lab ASCII FILE
Nb header lines : 72

Cyclic Voltammetry

Run on channel : 2 (SN 11745)
Synchronized channel(s) : 2, 3
User :
Electrode connection : CE to ground
Potential control : Ewe
Ewe ctrl range : min = -2.50 V, max = 2.50 V
Ewe,I filtering : <None>
Safety Limits :
	Do not start on E overload
Channel : Floating
Acquisition started on : 08/27/2023 15:19:54.658
Loaded Setting File :  C:\Users\EES\Documents\EC-Lab\Data\Federico\20230826 - Calibration KOAc no e-cleaning\20230826_FL_HER_Disc Ch2_Ring Ch3_KOAc_50H2O_Au Disc_Pt Ring_Pt CE_AgAgCl LF7_2500 rpm_600 RHE_C02.mps
Saved on :
	File : 20230827_FL_HER_Disc Ch2_Ring Ch3_KOAc_50H2O_Pt Disc_Pt Ring_Pt CE_AgAgCl LF7_2500 rpm_700RHE_05_CV_C02.mpr
	Directory : C:\Users\EES\Documents\EC-Lab\Data\Federico\20230827 - Calibration KOAc lower cleaning\
	Host : 192.168.10.11
Device : VSP-300 (SN 0779)
Address : USB
EC-Lab for windows v11.50 (software)
Internet server v11.50 (firmware)
Command interpretor v11.50 (firmware)
Electrode material :
Initial state :
Electrolyte :
Comments :
Cable : standard
Reference electrode : SCE Saturated Calomel Electrode (0.241 V)
Electrode surface area : 0.001 cm²
Characteristic mass : 0.001 g
Equivalent Weight : 0.000 g/eq.
Density : 0.000 g/cm3
Volume (V) : 0.001 cm³
Record Ece
Record Power
Cycle Definition : Charge/Discharge alternance
External device configuration :
   device type : RDE
   device name : ALS RRDE-3A
   Analog OUT :
      mode : E/V
      unit : speed/rpm
      max : 8000.000 at 8.000 V
      min : 0.000 at 0.000 V
      current : 2500.000
Ei (V)              -0.546
vs.                 Ref
dE/dt               5.000
dE/dt unit          mV/s
E1 (V)              -1.246
vs.                 Ref
Step percent        50
N                   5
E range min (V)     -2.500
E range max (V)     2.500
I Range             1 mA
I Range min         Unset
I Range max         Unset
I Range init        Unset
Bandwidth           5
E2 (V)              -1.246
vs.                 Ref
nc cycles           0
Reverse Scan        0
Ef (V)              0.000
vs.                 Eoc

mode	ox/red	error	control changes	counter inc.	time/s	control/V	Ewe/V	<I>/mA	cycle number	(Q-Qo)/C	I Range	<Ece>/V	P/W	Rcmp/Ohm	Analog OUT/V	step time/s	Ewe-Ece/V
2	0	0	0	0	368.816	-0.546048	-0.546948	-0.00149234	1	0.0000000E+000	40	0.796483	8.16231e-07	0.0000000E+000	2500	0.000000000000000E+000	-1.34343
2	0	0	1	0	370.682	-0.555376	-0.555614	-0.00173303	1	-3.22593e-06	40	0.799518	9.62894e-07	0.0000000E+000	2500	1.6658	-1.35513
2	0	0	1	0	372.681	-0.56537	-0.565219	-0.00186275	1	-6.98481e-06	40	0.803318	1.05286e-06	0.0000000E+000	2500	3.6646	-1.36854
2	0	0	1	0	374.68	-0.575364	-0.575734	-0.00197013	1	-1.09541e-05	40	0.807244	1.13427e-06	0.0000000E+000	2500	5.6635	-1.38298
2	0	0	1	0	376.679	-0.585359	-0.585673	-0.00207028	1	-1.51534e-05	40	0.811223	1.2125e-06	0.0000000E+000	2500	7.6623	-1.3969
2	0	0	1	0	378.677	-0.595353	-0.595807	-0.00219417	1	-1.95914e-05	40	0.815337	1.3073e-06	0.0000000E+000	2500	9.6612	-1.41114
2	0	0	1	0	380.676	-0.605347	-0.606085	-0.00234692	1	-2.42917e-05	40	0.819483	1.42243e-06	0.0000000E+000	2500	11.66	-1.42557
2	0	0	1	0	382.675	-0.615341	-0.615643	-0.00245594	1	-2.9246e-05	40	0.823786	1.51198e-06	0.0000000E+000	2500	13.6589	-1.43943
2	0	0	1	0	384.674	-0.625336	-0.626103	-0.00258578	1	-3.44818e-05	40	0.828077	1.61896e-06	0.0000000E+000	2500	15.6578	-1.45418
2	0	0	1	0	386.673	-0.63533	-0.635468	-0.00275772	1	-3.99838e-05	40	0.832325	1.75244e-06	0.0000000E+000	2500	17.6566	-1.46779
2	0	0	1	0	388.672	-0.645324	-0.645998	-0.00290702	1	-4.5782e-05	40	0.836588	1.87793e-06	0.0000000E+000	2500	19.6555	-1.48259
2	0	0	1	0	390.671	-0.655319	-0.655226	-0.00305995	1	-5.19247e-05	40	0.840863	2.00496e-06	0.0000000E+000	2500	21.6543	-1.49609
2	0	0	1	0	392.669	-0.665313	-0.666051	-0.00328208	1	-5.84171e-05	40	0.845225	2.18604e-06	0.0000000E+000	2500	23.6532	-1.51128
2	0	0	1	0	394.668	-0.675307	-0.675632	-0.00353268	1	-6.53947e-05	40	0.849507	2.38679e-06	0.0000000E+000	2500	25.652	-1.52514
2	0	0	1	0	396.667	-0.685301	-0.685861	-0.00388417	1	-7.2954e-05	40	0.853952	2.664e-06	0.0000000E+000	2500	27.6509	-1.53981
2	0	0	1	0	398.666	-0.695296	-0.695896	-0.00438101	1	-8.13668e-05	40	0.858761	3.04873e-06	0.0000000E+000	2500	29.6498	-1.55466
2	0	0	1	0	400.665	-0.70529	-0.705756	-0.00505661	1	-9.09164e-05	40	0.863793	3.56873e-06	0.0000000E+000	2500	31.6486	-1.56955
2	0	0	1	0	402.664	-0.715284	-0.715371	-0.00604278	1	-0.000102135	40	0.869539	4.32283e-06	0.0000000E+000	2500	33.6475	-1.58491
2	0	0	1	0	404.663	-0.725279	-0.72565	-0.00739956	1	-0.000115677	40	0.87615	5.36949e-06	0.0000000E+000	2500	35.6464	-1.6018
2	0	0	1	0	406.661	-0.735273	-0.735273	-0.00907981	1	-0.000132283	40	0.883572	6.67614e-06	0.0000000E+000	2500	37.6452	-1.61885
2	0	0	1	0	408.66	-0.745267	-0.745916	-0.0110817	1	-0.000152585	40	0.891752	8.26604e-06	0.0000000E+000	2500	39.644	-1.63767
2	0	0	1	0	410.659	-0.755262	-0.755697	-0.0132645	1	-0.000177073	40	0.900175	1.00239e-05	0.0000000E+000	2500	41.6429	-1.65587
2	0	0	1	0	412.658	-0.765256	-0.765392	-0.0155548	1	-0.000206088	40	0.908709	1.19056e-05	0.0000000E+000	2500	43.6418	-1.6741
2	0	0	1	0	414.657	-0.77525	-0.775803	-0.0179263	1	-0.000239738	40	0.916837	1.39073e-05	0.0000000E+000	2500	45.6406	-1.69264
2	0	0	1	0	416.656	-0.785244	-0.785519	-0.020297	1	-0.000278144	40	0.924497	1.59436e-05	0.0000000E+000	2500	47.6395	-1.71002
2	0	0	1	0	418.655	-0.795239	-0.795896	-0.0227026	1	-0.00032131	40	0.931755	1.80689e-05	0.0000000E+000	2500	49.6384	-1.72765
2	0	0	1	0	420.653	-0.805233	-0.805499	-0.02511	1	-0.000369252	40	0.938514	2.0226e-05	0.0000000E+000	2500	51.6372	-1.74401
2	0	0	1	0	422.652	-0.815227	-0.815717	-0.0274731	1	-0.000421958	40	0.944746	2.24103e-05	0.0000000E+000	2500	53.6361	-1.76046
2	0	0	1	0	424.651	-0.825222	-0.825712	-0.0299115	1	-0.000479509	40	0.950643	2.46983e-05	0.0000000E+000	2500	55.6349	-1.77635
2	0	0	1	0	426.65	-0.835216	-0.835822	-0.0323825	1	-0.000541958	40	0.956197	2.7066e-05	0.0000000E+000	2500	57.6338	-1.79202
2	0	0	1	0	428.649	-0.84521	-0.84592	-0.0349459	1	-0.000609403	40	0.961389	2.95614e-05	0.0000000E+000	2500	59.6326	-1.80731
2	0	0	1	0	430.648	-0.855205	-0.855726	-0.0375609	1	-0.000682059	40	0.966284	3.21418e-05	0.0000000E+000	2500	61.6315	-1.82201
2	0	0	1	0	432.647	-0.865199	-0.865862	-0.0404028	1	-0.000760174	40	0.971079	3.49833e-05	0.0000000E+000	2500	63.6304	-1.83694
2	0	0	1	0	434.645	-0.875193	-0.875676	-0.043397	1	-0.000844095	40	0.975723	3.80017e-05	0.0000000E+000	2500	65.6292	-1.8514
2	0	0	1	0	436.644	-0.885187	-0.885338	-0.0466095	1	-0.000934254	40	0.980315	4.12652e-05	0.0000000E+000	2500	67.6281	-1.86565
2	0	0	1	0	438.643	-0.895182	-0.895667	-0.0501148	1	-0.00103112	40	0.984782	4.48862e-05	0.0000000E+000	2500	69.6269	-1.88045
2	0	0	1	0	440.642	-0.905176	-0.905509	-0.0539706	1	-0.00113533	40	0.989189	4.88709e-05	0.0000000E+000	2500	71.6258	-1.8947
2	0	0	1	0	442.641	-0.91517	-0.916067	-0.058092	1	-0.0012475	40	0.993585	5.32161e-05	0.0000000E+000	2500	73.6246	-1.90965
2	0	0	1	0	444.64	-0.925165	-0.925487	-0.0625773	1	-0.0013684	40	0.998025	5.79145e-05	0.0000000E+000	2500	75.6235	-1.92351
2	0	0	1	0	446.639	-0.935159	-0.935271	-0.0674361	1	-0.0014986	40	1.00226	6.3071e-05	0.0000000E+000	2500	77.6224	-1.93753
2	0	0	1	0	448.637	-0.945153	-0.945569	-0.0726519	1	-0.00163882	40	1.00651	6.86974e-05	0.0000000E+000	2500	79.6212	-1.95208
2	0	0	1	0	450.636	-0.955147	-0.955256	-0.0781524	1	-0.00178974	40	1.01054	7.46556e-05	0.0000000E+000	2500	81.6201	-1.9658
2	0	0	1	0	452.635	-0.965142	-0.965571	-0.0839594	1	-0.00195199	40	1.01464	8.10687e-05	0.0000000E+000	2500	83.6189	-1.98021
2	0	0	1	0	454.634	-0.975136	-0.97546	-0.0902578	1	-0.00212639	40	1.01868	8.80428e-05	0.0000000E+000	2500	85.6178	-1.99414
2	0	0	1	0	456.633	-0.98513	-0.985314	-0.0972218	1	-0.00231398	40	1.02273	9.5794e-05	0.0000000E+000	2500	87.6166	-2.00804
2	0	0	1	0	458.632	-0.995125	-0.99534	-0.105045	1	-0.00251638	40	1.0269	0.000104556	0.0000000E+000	2500	89.6155	-2.02224
2	0	0	1	0	460.631	-1.00512	-1.00533	-0.113916	1	-0.00273545	40	1.03119	0.000114524	0.0000000E+000	2500	91.6144	-2.03652
2	0	0	1	0	462.629	-1.01511	-1.01562	-0.123741	1	-0.00297317	40	1.0356	0.000125674	0.0000000E+000	2500	93.6132	-2.05122
2	0	0	1	0	464.628	-1.02511	-1.02574	-0.134461	1	-0.00323156	40	1.04001	0.000137923	0.0000000E+000	2500	95.6121	-2.06575
2	0	0	1	0	466.627	-1.0351	-1.03545	-0.146345	1	-0.00351256	40	1.04457	0.000151533	0.0000000E+000	2500	97.6109	-2.08001
2	0	0	1	0	468.626	-1.0451	-1.04569	-0.159088	1	-0.00381819	40	1.04913	0.000166357	0.0000000E+000	2500	99.6098	-2.09483
2	0	0	1	0	470.625	-1.05509	-1.0557	-0.172935	1	-0.00415041	40	1.05379	0.000182567	0.0000000E+000	2500	101.609	-2.10949
2	0	0	1	0	472.624	-1.06508	-1.06561	-0.187911	1	-0.00451145	40	1.05836	0.000200241	0.0000000E+000	2500	103.607	-2.12397
2	0	0	1	0	474.623	-1.07508	-1.07573	-0.204035	1	-0.00490376	40	1.06308	0.000219485	0.0000000E+000	2500	105.606	-2.13881
2	0	0	1	0	476.621	-1.08507	-1.08553	-0.221196	1	-0.00532925	40	1.06786	0.000240116	0.0000000E+000	2500	107.605	-2.15339
2	0	0	1	0	478.62	-1.09507	-1.09529	-0.239611	1	-0.00579026	40	1.07264	0.000262443	0.0000000E+000	2500	109.604	-2.16792
2	0	0	1	0	480.619	-1.10506	-1.10586	-0.259278	1	-0.00628934	40	1.07734	0.000286724	0.0000000E+000	2500	111.603	-2.1832
2	0	0	1	0	482.618	-1.11506	-1.1156	-0.280539	1	-0.00682928	40	1.08235	0.000312969	0.0000000E+000	2500	113.602	-2.19795
2	0	0	1	0	484.617	-1.12505	-1.12615	-0.302948	1	-0.007413	40	1.08749	0.000341165	0.0000000E+000	2500	115.601	-2.21364
2	0	0	1	0	486.616	-1.13504	-1.13517	-0.32734	1	-0.00804375	40	1.09262	0.000371588	0.0000000E+000	2500	117.599	-2.22779
2	0	0	1	0	488.615	-1.14504	-1.14564	-0.353699	1	-0.0087252	40	1.09776	0.000405211	0.0000000E+000	2500	119.598	-2.24339
2	0	0	1	0	490.613	-1.15503	-1.15586	-0.381382	1	-0.00946022	40	1.1031	0.000440824	0.0000000E+000	2500	121.597	-2.25896
2	0	0	1	0	492.612	-1.16503	-1.16529	-0.411541	1	-0.0102535	40	1.10843	0.000479566	0.0000000E+000	2500	123.596	-2.27372
2	0	0	1	0	494.611	-1.17502	-1.17506	-0.443566	1	-0.0111089	40	1.11422	0.000521216	0.0000000E+000	2500	125.595	-2.28928
2	0	0	1	0	496.61	-1.18502	-1.18533	-0.477798	1	-0.0120306	40	1.11986	0.000566347	0.0000000E+000	2500	127.594	-2.30519
2	0	0	1	0	498.609	-1.19501	-1.19558	-0.51417	1	-0.0130228	40	1.12591	0.000614732	0.0000000E+000	2500	129.593	-2.32149
2	0	0	1	0	500.608	-1.205	-1.20524	-0.55291	1	-0.0140901	40	1.13219	0.000666391	0.0000000E+000	2500	131.591	-2.33743
2	0	0	1	0	502.607	-1.215	-1.21588	-0.594568	1	-0.0152378	40	1.13816	0.000722922	0.0000000E+000	2500	133.59	-2.35403
2	0	0	1	0	504.605	-1.22499	-1.22497	-0.637894	1	-0.016471	40	1.14437	0.0007814	0.0000000E+000	2500	135.589	-2.36934
2	0	0	1	0	506.604	-1.23499	-1.23584	-0.683725	1	-0.0177929	40	1.15076	0.000844972	0.0000000E+000	2500	137.588	-2.38659
2	0	0	1	0	508.603	-1.24498	-1.24508	-0.732927	1	-0.0192103	40	1.15684	0.00091255	0.0000000E+000	2500	139.587	-2.40191
2	0	0	0	0	508.774	-1.24598	-1.24605	-0.730365	1	-0.0193356	40	1.16247	0.000910072	0.0000000E+000	2500	139.758	-2.40852