File: examples/mptexample.mpt
EC-Lab ASCII FILE
Nb header lines : 72

Cyclic Voltammetry

Run on channel : 2 (SN 11745)
Synchronized channel(s) : 2, 3
User :
Electrode connection : CE to ground
Potential control : Ewe
Ewe ctrl range : min = -2.50 V, max = 2.50 V
Ewe,I filtering : <None>
Safety Limits :
	Do not start on E overload
Channel : Floating
Acquisition started on : 08/27/2023 15:00:27.310
Loaded Setting File :  C:\Users\EES\Documents\EC-Lab\Data\Federico\20230826 - Calibration KOAc no e-cleaning\20230826_FL_HER_Disc Ch2_Ring Ch3_KOAc_50H2O_Au Disc_Pt Ring_Pt CE_AgAgCl LF7_2500 rpm_600 RHE_C02.mps
Saved on :
	File : 20230827_FL_HER_Disc Ch2_Ring Ch3_KOAc_50H2O_Pt Disc_Pt Ring_Pt CE_AgAgCl LF7_2500 rpm_600RHE_4_05_CV_C02.mpr
	Directory : C:\Users\EES\Documents\EC-Lab\Data\Federico\20230827 - Calibration KOAc lower cleaning\
	Host : 192.168.10.11
Device : VSP-300 (SN 0779)
Address : USB
EC-Lab for windows v11.50 (software)
Internet server v11.50 (firmware)
Command interpretor v11.50 (firmware)
Electrode material :
Initial state :
Electrolyte :
Comments :
Cable : standard
Reference electrode : SCE Saturated Calomel Electrode (0.241 V)
Electrode surface area : 0.001 cm²
Characteristic mass : 0.001 g
Equivalent Weight : 0.000 g/eq.
Density : 0.000 g/cm3
Volume (V) : 0.001 cm³
Record Ece
Record Power
Cycle Definition : Charge/Discharge alternance
External device configuration :
   device type : RDE
   device name : ALS RRDE-3A
   Analog OUT :
      mode : E/V
      unit : speed/rpm
      max : 8000.000 at 8.000 V
      min : 0.000 at 0.000 V
      current : 2500.000
Ei (V)              -0.546
vs.                 Ref
dE/dt               5.000
dE/dt unit          mV/s
E1 (V)              -1.246
vs.                 Ref
Step percent        50
N                   5
E range min (V)     -2.500
E range max (V)     2.500
I Range             1 mA
I Range min         Unset
I Range max         Unset
I Range init        Unset
Bandwidth           5
E2 (V)              -1.246
vs.                 Ref
nc cycles           0
Reverse Scan        0
Ef (V)              0.000
vs.                 Eoc

mode	ox/red	error	control changes	counter inc.	time/s	control/V	Ewe/V	<I>/mA	cycle number	(Q-Qo)/C	I Range	<Ece>/V	P/W	Rcmp/Ohm	Analog OUT/V	step time/s	Ewe-Ece/V
2	0	0	1	0	368.832	-0.546048	-0.546884	-0.00200349	1	0.0000000E+000	40	0.832896	1.09568e-06	0.0000000E+000	2500	0.000000000000000E+000	-1.37978
2	0	0	1	0	370.697	-0.555376	-0.556207	-0.00175007	1	-3.26676e-06	40	0.836154	9.73402e-07	0.0000000E+000	2500	1.6658	-1.39236
2	0	0	1	0	372.696	-0.56537	-0.566423	-0.00189413	1	-7.07498e-06	40	0.839403	1.07288e-06	0.0000000E+000	2500	3.6646	-1.40583
2	0	0	1	0	374.695	-0.575364	-0.575428	-0.00200645	1	-1.11256e-05	40	0.842653	1.15457e-06	0.0000000E+000	2500	5.6635	-1.41808
2	0	0	1	0	376.694	-0.585359	-0.586027	-0.00211797	1	-1.54137e-05	40	0.845958	1.24119e-06	0.0000000E+000	2500	7.6623	-1.43198
2	0	0	1	0	378.693	-0.595353	-0.595846	-0.00223483	1	-1.9921e-05	40	0.849144	1.33162e-06	0.0000000E+000	2500	9.6612	-1.44499
2	0	0	1	0	380.691	-0.605347	-0.605724	-0.00237767	1	-2.46857e-05	40	0.852271	1.44021e-06	0.0000000E+000	2500	11.66	-1.458
2	0	0	1	0	382.69	-0.615341	-0.615839	-0.00250345	1	-2.974e-05	40	0.855514	1.54172e-06	0.0000000E+000	2500	13.6589	-1.47135
2	0	0	1	0	384.689	-0.625336	-0.625733	-0.0026512	1	-3.50509e-05	40	0.858592	1.65894e-06	0.0000000E+000	2500	15.6578	-1.48433
2	0	0	1	0	386.688	-0.63533	-0.635712	-0.00280898	1	-4.06641e-05	40	0.861824	1.7857e-06	0.0000000E+000	2500	17.6566	-1.49754
2	0	0	1	0	388.687	-0.645324	-0.645635	-0.00299023	1	-4.6599e-05	40	0.86504	1.9306e-06	0.0000000E+000	2500	19.6555	-1.51068
2	0	0	1	0	390.686	-0.655319	-0.655611	-0.00314828	1	-5.28896e-05	40	0.868235	2.06405e-06	0.0000000E+000	2500	21.6543	-1.52385
2	0	0	1	0	392.685	-0.665313	-0.665778	-0.00341293	1	-5.96057e-05	40	0.871428	2.27226e-06	0.0000000E+000	2500	23.6532	-1.53721
2	0	0	1	0	394.683	-0.675307	-0.675143	-0.00368426	1	-6.68319e-05	40	0.874702	2.48741e-06	0.0000000E+000	2500	25.652	-1.54985
2	0	0	1	0	396.682	-0.685301	-0.685674	-0.00404021	1	-7.46975e-05	40	0.878109	2.77027e-06	0.0000000E+000	2500	27.6509	-1.56378
2	0	0	1	0	398.681	-0.695296	-0.695592	-0.0046018	1	-8.34952e-05	40	0.881766	3.20097e-06	0.0000000E+000	2500	29.6498	-1.57736
2	0	0	1	0	400.68	-0.70529	-0.70581	-0.00537721	1	-9.36009e-05	40	0.885897	3.79528e-06	0.0000000E+000	2500	31.6486	-1.59171
2	0	0	1	0	402.679	-0.715284	-0.715379	-0.00645658	1	-0.000105562	40	0.890558	4.6189e-06	0.0000000E+000	2500	33.6475	-1.60594
2	0	0	1	0	404.678	-0.725279	-0.725306	-0.00788183	1	-0.000120032	40	0.89607	5.71673e-06	0.0000000E+000	2500	35.6464	-1.62138
2	0	0	1	0	406.677	-0.735273	-0.73588	-0.009676	1	-0.000137739	40	0.90226	7.12038e-06	0.0000000E+000	2500	37.6452	-1.63814
2	0	0	1	0	408.675	-0.745267	-0.745903	-0.0116972	1	-0.000159256	40	0.908937	8.72501e-06	0.0000000E+000	2500	39.644	-1.65484
2	0	0	1	0	410.674	-0.755262	-0.755597	-0.0139219	1	-0.000185043	40	0.9159	1.05193e-05	0.0000000E+000	2500	41.6429	-1.6715
2	0	0	1	0	412.673	-0.765256	-0.765801	-0.0161908	1	-0.000215331	40	0.922711	1.23989e-05	0.0000000E+000	2500	43.6418	-1.68851
2	0	0	1	0	414.672	-0.77525	-0.775472	-0.0185497	1	-0.000250242	40	0.929284	1.43848e-05	0.0000000E+000	2500	45.6406	-1.70476
2	0	0	1	0	416.671	-0.785244	-0.784724	-0.0208534	1	-0.000289821	40	0.935578	1.63642e-05	0.0000000E+000	2500	47.6395	-1.7203
2	0	0	1	0	418.67	-0.795239	-0.795574	-0.0231898	1	-0.000334064	40	0.941503	1.84492e-05	0.0000000E+000	2500	49.6384	-1.73708
2	0	0	1	0	420.669	-0.805233	-0.804875	-0.0254499	1	-0.000382911	40	0.946827	2.0484e-05	0.0000000E+000	2500	51.6372	-1.7517
2	0	0	1	0	422.668	-0.815227	-0.816021	-0.0278248	1	-0.000436388	40	0.952036	2.27056e-05	0.0000000E+000	2500	53.6361	-1.76806
2	0	0	1	0	424.666	-0.825222	-0.825588	-0.0301954	1	-0.000494603	40	0.956964	2.49289e-05	0.0000000E+000	2500	55.6349	-1.78255
2	0	0	1	0	426.665	-0.835216	-0.835499	-0.0326361	1	-0.000557579	40	0.961656	2.72674e-05	0.0000000E+000	2500	57.6338	-1.79715
2	0	0	1	0	428.664	-0.84521	-0.846114	-0.0350757	1	-0.000625443	40	0.966108	2.9678e-05	0.0000000E+000	2500	59.6326	-1.81222
2	0	0	1	0	430.663	-0.855205	-0.855356	-0.0377054	1	-0.000698376	40	0.970413	3.22515e-05	0.0000000E+000	2500	61.6315	-1.82577
2	0	0	1	0	432.662	-0.865199	-0.866157	-0.0404686	1	-0.000776695	40	0.974663	3.50522e-05	0.0000000E+000	2500	63.6304	-1.84082
2	0	0	1	0	434.661	-0.875193	-0.875622	-0.0433956	1	-0.000860698	40	0.9788	3.79981e-05	0.0000000E+000	2500	65.6292	-1.85442
2	0	0	1	0	436.66	-0.885187	-0.885409	-0.0465653	1	-0.000950785	40	0.982918	4.12294e-05	0.0000000E+000	2500	67.6281	-1.86833
2	0	0	1	0	438.658	-0.895182	-0.895906	-0.0500251	1	-0.0010475	40	0.986936	4.48178e-05	0.0000000E+000	2500	69.6269	-1.88284
2	0	0	1	0	440.657	-0.905176	-0.906215	-0.0537801	1	-0.00115143	40	0.991003	4.87364e-05	0.0000000E+000	2500	71.6258	-1.89722
2	0	0	1	0	442.656	-0.91517	-0.915614	-0.057825	1	-0.00126318	40	0.995003	5.29454e-05	0.0000000E+000	2500	73.6246	-1.91062
2	0	0	1	0	444.655	-0.925165	-0.925867	-0.062238	1	-0.00138341	40	0.99907	5.76242e-05	0.0000000E+000	2500	75.6235	-1.92494
2	0	0	1	0	446.654	-0.935159	-0.935652	-0.0670189	1	-0.00151286	40	1.00308	6.27063e-05	0.0000000E+000	2500	77.6224	-1.93873
2	0	0	1	0	448.653	-0.945153	-0.945655	-0.0721248	1	-0.00165216	40	1.00715	6.82052e-05	0.0000000E+000	2500	79.6212	-1.95281
2	0	0	1	0	450.652	-0.955147	-0.955201	-0.0776211	1	-0.00180204	40	1.01101	7.41438e-05	0.0000000E+000	2500	81.6201	-1.96621
2	0	0	1	0	452.65	-0.965142	-0.965436	-0.0833847	1	-0.00196315	40	1.01483	8.05027e-05	0.0000000E+000	2500	83.6189	-1.98027
2	0	0	1	0	454.649	-0.975136	-0.97534	-0.0896249	1	-0.00213625	40	1.01869	8.74148e-05	0.0000000E+000	2500	85.6178	-1.99403
2	0	0	1	0	456.648	-0.98513	-0.985426	-0.0965413	1	-0.00232248	40	1.02267	9.51343e-05	0.0000000E+000	2500	87.6166	-2.0081
2	0	0	1	0	458.647	-0.995125	-0.995428	-0.104319	1	-0.00252342	40	1.02669	0.000103842	0.0000000E+000	2500	89.6155	-2.02212
2	0	0	1	0	460.646	-1.00512	-1.00515	-0.113149	1	-0.00274098	40	1.03075	0.000113731	0.0000000E+000	2500	91.6144	-2.0359
2	0	0	1	0	462.645	-1.01511	-1.01499	-0.12297	1	-0.00297725	40	1.0351	0.000124814	0.0000000E+000	2500	93.6132	-2.05009
2	0	0	1	0	464.644	-1.02511	-1.0253	-0.133912	1	-0.00323434	40	1.03952	0.000137301	0.0000000E+000	2500	95.6121	-2.06482
2	0	0	1	0	466.642	-1.0351	-1.03558	-0.145848	1	-0.00351427	40	1.04399	0.000151038	0.0000000E+000	2500	97.6109	-2.07957
2	0	0	1	0	468.641	-1.0451	-1.04578	-0.158801	1	-0.0038191	40	1.04847	0.000166071	0.0000000E+000	2500	99.6098	-2.09425
2	0	0	1	0	470.64	-1.05509	-1.05585	-0.172876	1	-0.00415102	40	1.0531	0.000182531	0.0000000E+000	2500	101.609	-2.10895
2	0	0	1	0	472.639	-1.06508	-1.06531	-0.187961	1	-0.00451202	40	1.05774	0.000200236	0.0000000E+000	2500	103.607	-2.12305
2	0	0	1	0	474.638	-1.07508	-1.07599	-0.204326	1	-0.00490461	40	1.0625	0.000219854	0.0000000E+000	2500	105.606	-2.13849
2	0	0	1	0	476.637	-1.08507	-1.08573	-0.22194	1	-0.00533115	40	1.06713	0.000240966	0.0000000E+000	2500	107.605	-2.15286
2	0	0	1	0	478.636	-1.09507	-1.09582	-0.240623	1	-0.00579393	40	1.07186	0.000263679	0.0000000E+000	2500	109.604	-2.16768
2	0	0	1	0	480.634	-1.10506	-1.10557	-0.260784	1	-0.00629566	40	1.07674	0.000288316	0.0000000E+000	2500	111.603	-2.18232
2	0	0	1	0	482.633	-1.11506	-1.11573	-0.282187	1	-0.00683881	40	1.08164	0.000314843	0.0000000E+000	2500	113.602	-2.19737
2	0	0	1	0	484.632	-1.12505	-1.12551	-0.305326	1	-0.0074265	40	1.08678	0.000343647	0.0000000E+000	2500	115.601	-2.21229
2	0	0	1	0	486.631	-1.13504	-1.13565	-0.329742	1	-0.00806183	40	1.09192	0.000374472	0.0000000E+000	2500	117.599	-2.22757
2	0	0	1	0	488.63	-1.14504	-1.14548	-0.356223	1	-0.00874812	40	1.09709	0.000408045	0.0000000E+000	2500	119.598	-2.24256
2	0	0	1	0	490.629	-1.15503	-1.15565	-0.384311	1	-0.00948891	40	1.10295	0.00044413	0.0000000E+000	2500	121.597	-2.25861
2	0	0	1	0	492.628	-1.16503	-1.16547	-0.414543	1	-0.0102878	40	1.10864	0.000483136	0.0000000E+000	2500	123.596	-2.2741
2	0	0	1	0	494.626	-1.17502	-1.17572	-0.447084	1	-0.0111497	40	1.11417	0.000525644	0.0000000E+000	2500	125.595	-2.28988
2	0	0	1	0	496.625	-1.18502	-1.18552	-0.482062	1	-0.0120788	40	1.11986	0.000571493	0.0000000E+000	2500	127.594	-2.30538
2	0	0	1	0	498.624	-1.19501	-1.19542	-0.518874	1	-0.01308	40	1.12584	0.000620273	0.0000000E+000	2500	129.593	-2.32126
2	0	0	1	0	500.623	-1.205	-1.20523	-0.558156	1	-0.0141575	40	1.13205	0.000672709	0.0000000E+000	2500	131.591	-2.33728
2	0	0	1	0	502.622	-1.215	-1.21537	-0.599479	1	-0.0153155	40	1.13813	0.00072859	0.0000000E+000	2500	133.59	-2.3535
2	0	0	1	0	504.621	-1.22499	-1.22597	-0.643756	1	-0.0165592	40	1.14442	0.000789225	0.0000000E+000	2500	135.589	-2.37039
2	0	0	1	0	506.62	-1.23499	-1.2359	-0.690559	1	-0.0178943	40	1.15097	0.000853464	0.0000000E+000	2500	137.588	-2.38687
2	0	0	1	0	508.618	-1.24498	-1.24564	-0.739272	1	-0.0193246	40	1.15748	0.000920868	0.0000000E+000	2500	139.587	-2.40313
2	0	0	1	0	508.789	-1.24598	-1.24637	-0.736436	1	-0.0194509	40	1.1628	0.00091787	0.0000000E+000	2500	139.758	-2.40917